Date and Time:                Sun Dec 12 20:02:53.061 2021
Software Version:             4.31.30023.0
Temperature (C):              -50
Model:                        DU420_BVF
Data Type:                    Counts (Bg Corrected)
Acquisition Mode:             Accumulate
Trigger Mode:                 Internal
Exposure Time (secs):         0.09999
Accumulate Cycle Time (secs): 0.09999
Frequency (Hz):               10.001
Number of Accumulations:      100
Readout Mode:                 Full Vertical Binning
Horizontal binning:           1
Extended Dynamic Range:       off
Horizontally flipped:         false
Vertical Shift Speed (usecs): 8.25
Pixel Readout Time (usecs):   30.303
Serial Number:                CCD-22942
Pre-Amplifier Gain:           1x
Spurious Noise Filter Mode:   No Filter
Photon counted:               false
Data Averaging Filter Mode:   No Filter
KY328i:
Serial Number:                KY-3688
Wavelength (nm):              638.376
Grating Groove Density (l/mm):150.012
Grating Blaze:                500nm
Output Flipper Port:          Direct
Filter:                       1-Empty



376.44705,532
376.95944,558
377.47183,543
377.98422,522
378.49664,455
379.00903,519
379.52145,426
380.03384,565
380.54626,546
381.05869,520
381.57108,531
382.0835,474
382.59592,458
383.10834,488
383.62076,461
384.13321,513
384.64563,448
385.15805,504
385.6705,531
386.18292,449
386.69537,531
387.20779,508
387.72025,504
388.2327,470
388.74515,469
389.2576,612
389.77005,473
390.2825,469
390.79495,517
391.3074,482
391.81985,540
392.33234,476
392.84479,409
393.35724,482
393.86972,527
394.3822,503
394.89465,555
395.40714,502
395.91962,429
396.4321,574
396.94458,474
397.45706,500
397.96954,565
398.48203,579
398.99451,541
399.50699,555
400.0195,601
400.53198,560
401.04449,512
401.55698,479
402.06949,501
402.58197,524
403.09448,573
403.60699,504
404.11951,503
404.63202,516
405.14453,476
405.65704,552
406.16956,453
406.68207,536
407.19458,525
407.70709,525
408.21964,518
408.73215,512
409.24469,554
409.7572,552
410.26974,509
410.78226,550
411.2948,518
411.80734,549
412.31989,453
412.8324,494
413.34494,461
413.85748,531
414.37003,519
414.88257,462
415.39514,601
415.90768,522
416.42023,512
416.93277,524
417.44534,531
417.95789,520
418.47046,492
418.983,544
419.49557,526
420.00812,524
420.52069,503
421.03326,487
421.54581,518
422.05838,488
422.57095,544
423.08353,513
423.5961,546
424.10867,539
424.62125,498
425.13382,501
425.64639,523
426.159,574
426.67157,492
427.18414,517
427.69675,545
428.20932,520
428.72189,490
429.2345,498
429.74707,542
430.25967,468
430.77228,472
431.28485,449
431.79745,465
432.31006,571
432.82266,536
433.33524,439
433.84784,547
434.36044,591
434.87305,553
435.38565,472
435.89825,573
436.41089,514
436.92349,549
437.4361,552
437.9487,526
438.4613,617
438.97394,574
439.48654,539
439.99915,566
440.51178,544
441.02438,581
441.53702,532
442.04962,541
442.56226,572
443.07489,533
443.58749,516
444.10013,480
444.61276,502
445.1254,478
445.638,559
446.15063,515
446.66327,524
447.1759,517
447.68854,529
448.20117,471
448.71381,557
449.22644,493
449.73907,555
450.25171,519
450.76434,516
451.27701,522
451.78964,563
452.30228,499
452.81491,497
453.32758,584
453.84021,481
454.35284,505
454.86551,524
455.37814,571
455.89081,515
456.40344,499
456.91611,497
457.42874,584
457.94141,573
458.45404,489
458.96671,559
459.47937,481
459.992,579
460.50467,555
461.01733,570
461.53,561
462.04263,559
462.5553,584
463.06796,486
463.58063,558
464.09329,649
464.60596,656
465.11862,620
465.63129,609
466.14392,623
466.65659,582
467.16928,545
467.68195,596
468.19461,589
468.70728,560
469.21994,525
469.7326,592
470.24527,554
470.75793,589
471.2706,539
471.78329,608
472.29596,550
472.80862,564
473.32129,609
473.83398,512
474.34665,578
474.85931,587
475.37201,588
475.88467,533
476.39734,558
476.91003,616
477.4227,534
477.93539,609
478.44806,599
478.96075,557
479.47342,614
479.98608,616
480.49878,515
481.01144,587
481.52414,633
482.03683,612
482.5495,725
483.06219,710
483.57486,762
484.08755,793
484.60022,768
485.11292,729
485.62561,742
486.13828,779
486.65097,865
487.16364,789
487.67633,824
488.18903,869
488.70169,888
489.21439,995
489.72708,922
490.23978,934
490.75244,896
491.26514,961
491.77783,941
492.2905,953
492.80319,1031
493.31589,953
493.82858,1031
494.34125,965
494.85394,1022
495.36664,1045
495.87933,1027
496.392,1063
496.90469,1126
497.41739,1122
497.93008,1086
498.44275,1131
498.95544,1147
499.46814,1170
499.98083,1210
500.49353,1166
501.0062,1316
501.51889,1291
502.03159,1295
502.54428,1349
503.05695,1371
503.56964,1453
504.08234,1478
504.59503,1547
505.10773,1510
505.62039,1574
506.13309,1712
506.64578,1840
507.15848,1691
507.67114,1857
508.18384,1963
508.69653,2087
509.20923,2130
509.72189,2299
510.23459,2576
510.74728,2752
511.25998,3185
511.77264,4125
512.28534,5479
512.79803,8653
513.31073,19921
513.82343,73044
514.33606,291942
514.84875,939587
515.36145,2.28662e+06
515.87415,4.11923e+06
516.38684,5.51651e+06
516.89954,5.75423e+06
517.41217,4.78e+06
517.92487,3.35818e+06
518.43756,2.26745e+06
518.95026,1.65794e+06
519.46295,1.34259e+06
519.97565,1.11003e+06
520.48828,882153
521.00098,647475
521.51367,435511
522.02637,275110
522.539,164860
523.0517,92301
523.56439,46866
524.07709,21044
524.58972,9927
525.10242,5703
525.61511,4335
526.12781,3590
526.64044,3172
527.15314,2899
527.66583,2640
528.17847,2454
528.69116,2315
529.20386,2209
529.71649,2046
530.22919,2048
530.74188,1961
531.25452,1877
531.76721,1825
532.27991,1788
532.79254,1729
533.30524,1593
533.81787,1664
534.33057,1485
534.8432,1492
535.3559,1468
535.86859,1437
536.38123,1426
536.89392,1359
537.40656,1409
537.91925,1373
538.43188,1320
538.94458,1318
539.45721,1309
539.96985,1290
540.48254,1180
540.99518,1226
541.50787,1128
542.02051,1190
542.5332,1138
543.04584,1044
543.55847,1123
544.07117,1084
544.5838,958
545.09644,943
545.60913,983
546.12177,912
546.6344,950
547.14703,888
547.65973,884
548.17236,887
548.685,850
549.19763,822
549.71033,842
550.22296,876
550.7356,765
551.24823,831
551.76086,855
552.2735,880
552.78613,839
553.29883,855
553.81146,845
554.3241,923
554.83673,835
555.34937,826
555.862,821
556.37463,812
556.88727,838
557.3999,787
557.91254,864
558.42517,803
558.93774,801
559.45038,878
559.96301,840
560.47565,810
560.98828,772
561.50092,769
562.01349,825
562.52612,804
563.03876,883
563.55139,859
564.06396,790
564.5766,863
565.08923,843
565.60181,873
566.11444,773
566.62708,784
567.13965,871
567.65228,877
568.16486,848
568.67749,881
569.19006,866
569.7027,908
570.21527,830
570.72791,907
571.24048,878
571.75311,901
572.26569,930
572.77826,909
573.29089,869
573.80347,857
574.31604,984
574.82867,948
575.34125,947
575.85382,929
576.36639,961
576.87903,932
577.3916,927
577.90417,963
578.41675,982
578.92932,1041
579.44189,1003
579.95447,964
580.46704,1016
580.97961,1033
581.49219,974
582.00476,982
582.51733,1030
583.02991,883
583.54248,1002
584.05499,1006
584.56757,983
585.08014,1023
585.59271,1013
586.10522,986
586.6178,1065
587.13037,993
587.64288,975
588.15546,1001
588.66803,981
589.18054,996
589.69312,972
590.20563,1037
590.7182,1042
591.23071,1030
591.74329,988
592.2558,1008
592.76831,1005
593.28088,1011
593.7934,1023
594.30591,932
594.81848,1018
595.33099,983
595.84351,964
596.35602,1065
596.86853,989
597.38104,1000
597.89355,972
598.40613,898
598.91864,987
599.43109,940
599.9436,924
600.45612,913
600.96863,975
601.48114,882
601.99365,958
602.50616,940
603.01862,875
603.53113,886
604.04364,905
604.55615,899
605.0686,891
605.58112,807
606.09357,932
606.60608,833
607.11853,871
607.63104,835
608.14349,854
608.65601,883
609.16846,881
609.68091,857
610.19342,831
610.70587,871
611.21832,900
611.73077,883
612.24329,889
612.75574,866
613.26819,887
613.78064,877
614.29309,813
614.80554,863
615.31799,856
615.83044,819
616.3429,853
616.85529,802
617.36774,792
617.88019,775
618.39264,772
618.90503,792
619.41748,826
619.92993,782
620.44232,686
620.95477,810
621.46716,807
621.97961,835
622.492,813
623.00446,792
623.51685,808
624.02924,760
624.54169,741
625.05408,805
625.56647,803
626.07886,824
626.59125,769
627.1037,701
627.61609,783
628.12848,755
628.64087,667
629.1532,787
629.66559,717
630.17798,823
630.69037,776
631.20276,772
631.71509,730
632.22748,717
632.73987,720
633.2522,759
633.76459,708
634.27692,750
634.78931,700
635.30164,728
635.81403,718
636.32635,702
636.83868,734
637.35107,726
637.8634,681
638.37573,720
638.88806,665
639.40039,646
639.91272,681
640.42505,752
640.93738,656
641.44971,723
641.96204,600
642.47437,680
642.98669,667
643.49902,790
644.01129,631
644.52362,684
645.03589,669
645.54822,691
646.06055,629
646.57281,618
647.08508,687
647.59741,689
648.10968,670
648.62195,618
649.13428,576
649.64655,673
650.15881,614
650.67108,678
651.18335,641
651.69562,674
652.20789,670
652.72015,569
653.23242,634
653.74469,694
654.25696,667
654.76917,668
655.28143,635
655.7937,653
656.30591,614
656.81818,604
657.33038,599
657.84265,596
658.35486,636
658.86707,627
659.37933,640
659.89154,568
660.40375,579
660.91595,601
661.42816,573
661.94037,613
662.45258,589
662.96478,646
663.47699,565
663.9892,610
664.5014,603
665.01355,553
665.52576,588
666.03796,561
666.55011,552
667.06232,596
667.57446,509
668.08667,646
668.59882,562
669.11096,553
669.62311,500
670.13531,581
670.64746,577
671.15961,505
671.67175,492
672.1839,568
672.69604,592
673.20819,550
673.72034,569
674.23242,551
674.74457,494
675.25671,529
675.7688,604
676.28094,546
676.79303,511
677.30518,494
677.81726,505
678.32941,525
678.84149,538
679.35358,533
679.86566,558
680.37775,538
680.88983,560
681.40192,494
681.914,512
682.42609,482
682.93817,528
683.45026,533
683.96234,525
684.47437,556
684.98645,499
685.49847,529
686.01056,532
686.52258,520
687.03467,491
687.54669,520
688.05872,542
688.57074,505
689.08276,493
689.59479,514
690.10687,524
690.61884,401
691.13086,485
691.64288,492
692.15491,518
692.66693,528
693.17889,468
693.69092,457
694.20288,500
694.7149,475
695.22687,496
695.73889,469
696.25085,485
696.76282,459
697.27478,482
697.78674,504
698.29871,417
698.81067,476
699.32263,449
699.83459,438
700.34656,459
700.85852,450
701.37042,462
701.88239,454
702.39435,458
702.90625,488
703.41815,422
703.93011,443
704.44202,417
704.95392,437
705.46582,419
705.97778,429
706.48969,426
707.00153,464
707.51343,472
708.02533,515
708.53723,461
709.04913,424
709.56097,466
710.07288,492
710.58472,488
711.09662,438
711.60846,504
712.12036,493
712.6322,485
713.14404,472
713.65588,482
714.16772,462
714.67957,478
715.19141,457
715.70325,417
716.21509,419
716.72687,459
717.23871,347
717.75049,415
718.26233,441
718.77411,464
719.28595,465
719.79773,389
720.30951,436
720.82129,443
721.33313,423
721.84491,416
722.35663,505
722.86841,439
723.38019,405
723.89197,393
724.40375,413
724.91547,461
725.42725,424
725.93896,386
726.45074,431
726.96246,429
727.47418,428
727.9859,403
728.49762,383
729.00934,442
729.52106,410
730.03278,441
730.54449,391
731.05621,444
731.56787,355
732.07959,523
732.59131,397
733.10297,414
733.61462,418
734.12634,451
734.638,382
735.14966,455
735.66132,397
736.17297,470
736.68463,414
737.19629,444
737.70795,396
738.2196,358
738.7312,396
739.24286,388
739.75446,405
740.26611,471
740.77771,408
741.28931,364
741.8009,329
742.31256,349
742.82416,450
743.33575,368
743.84729,443
744.35889,372
744.87048,376
745.38208,423
745.89362,406
746.40521,369
746.91675,400
747.42828,409
747.93988,387
748.45142,389
748.96295,441
749.47449,435
749.98602,416
750.49756,425
751.00909,423
751.52057,394
752.0321,453
752.54364,440
753.05511,400
753.56659,359
754.07813,392
754.5896,417
755.10107,420
755.61255,368
756.12402,376
756.6355,391
757.14697,405
757.65845,419
758.16986,440
758.68134,432
759.19281,430
759.70422,358
760.21564,441
760.72711,385
761.23853,350
761.74994,358
762.26135,366
762.77277,414
763.28418,385
763.79559,402
764.30695,350
764.81836,400
765.32971,355
765.84113,381
766.35248,404
766.86389,379
767.37524,373
767.8866,382
768.39795,390
768.9093,364
769.42065,340
769.93195,331
770.4433,376
770.95465,435
771.46594,385
771.97729,406
772.48859,390
772.99988,326
773.51123,423
774.02252,348
774.53381,333
775.0451,323
775.55634,429
776.06763,318
776.57892,386
777.09015,346
777.60144,318
778.11267,364
778.62396,362
779.13519,385
779.64642,378
780.15765,365
780.66888,377
781.18011,409
781.69135,371
782.20251,402
782.71375,386
783.22491,444
783.73615,347
784.24731,352
784.75848,377
785.26971,350
785.78088,364
786.29205,402
786.80322,364
787.31433,365
787.8255,453
788.33667,363
788.84778,332
789.35895,319
789.87006,375
790.38116,364
790.89233,407
791.40344,337
791.91455,375
792.4256,377
792.93671,414
793.44781,359
793.95892,358
794.46997,397
794.98108,325
795.49213,431
796.00317,378
796.51422,317
797.02527,376
797.53632,383
798.04736,378
798.55841,391
799.06946,383
799.58044,354
800.09149,324
800.60248,349
801.11353,331
801.62451,332
802.1355,330
802.64648,328
803.15747,331
803.66846,384
804.17938,357
804.69037,314
805.20135,336
805.71228,411
806.22321,391
806.73419,351
807.24512,367
807.75604,382
808.26697,355
808.77789,362
809.28882,347
809.79968,364
810.31061,325
810.82147,420
811.3324,282
811.84326,336
812.35413,408
812.86499,373
813.37585,375
813.88672,385
814.39758,357
814.90845,395
815.41925,400
815.93011,314
816.44092,374
816.95178,386
817.46259,342
817.97339,376
818.48419,392
818.995,332
819.5058,341
820.01654,381
820.52734,392
821.03809,374
821.54889,373
822.05963,301
822.57037,354
823.08112,345
823.59186,397
824.1026,346
824.61334,301
825.12408,364
825.63477,281
826.14551,370
826.65619,383
827.16687,352
827.67761,328
828.18829,374
828.69897,370
829.20966,403
829.72028,386
830.23096,382
830.74164,386
831.25226,348
831.76288,364
832.27356,357
832.78418,336
833.2948,376
833.80542,369
834.31604,354
834.8266,373
835.33722,362
835.84778,426
836.3584,293
836.86896,355
837.37952,367
837.89008,337
838.40063,324
838.91119,359
839.42175,320
839.93231,343
840.44281,356
840.95337,327
841.46387,337
841.97437,342
842.48486,322
842.99536,307
843.50586,294
844.01636,321
844.52686,314
845.03729,306
845.54779,328
846.05823,341
846.56873,356
847.07916,271
847.5896,347
848.10004,360
848.61041,334
849.12085,357
849.63129,364
850.14166,330
850.6521,336
851.16248,331
851.67285,329
852.18323,360
852.6936,310
853.20398,376
853.71436,350
854.22467,368
854.73505,341
855.24536,356
855.75568,290
856.26605,423
856.77637,357
857.28668,319
857.79694,378
858.30725,332
858.81757,300
859.32782,349
859.83813,422
860.34839,267
860.85864,342
861.3689,266
861.87915,316
862.3894,358
862.8996,283
863.40985,310
863.92004,402
864.4303,283
864.94049,314
865.45068,302
865.96088,298
866.47107,321
866.98126,360
867.49139,351
868.00159,287
868.51172,382
869.02191,368
869.53204,286
870.04218,342
870.55231,324
871.06244,325
871.57257,302
872.08264,298
872.59277,348
873.10284,286
873.61292,352
874.12299,267
874.63306,338
875.14313,345
875.6532,326
876.16327,364
876.67328,320
877.18335,302
877.69336,333
878.20337,309
878.71338,299
879.22339,222
879.7334,306
880.24341,292
880.75336,301
881.26337,229
881.77332,283
882.28333,291
882.79327,255
883.30322,246
883.81317,283
884.32306,208
884.83301,275
885.3429,233
885.85284,282
886.36273,251
886.87262,227
887.38251,283
887.8924,321
888.40228,235
888.91217,271
889.422,299
889.93188,230
890.44171,200
890.95154,242
891.46136,303
891.97119,269
892.48102,278
892.99084,205
893.50061,286
894.01038,228
894.5202,212
895.02997,240
895.53973,234
896.0495,187
896.55927,247
897.06897,228
897.57874,224
898.08844,243
898.59821,233
899.10791,268
899.61761,246
900.12732,293
