Date and Time:                Sun Dec 12 20:01:22.436 2021
Software Version:             4.31.30023.0
Temperature (C):              -50
Model:                        DU420_BVF
Data Type:                    Counts (Bg Corrected)
Acquisition Mode:             Accumulate
Trigger Mode:                 Internal
Exposure Time (secs):         0.09999
Accumulate Cycle Time (secs): 0.09999
Frequency (Hz):               10.001
Number of Accumulations:      100
Readout Mode:                 Full Vertical Binning
Horizontal binning:           1
Extended Dynamic Range:       off
Horizontally flipped:         false
Vertical Shift Speed (usecs): 8.25
Pixel Readout Time (usecs):   30.303
Serial Number:                CCD-22942
Pre-Amplifier Gain:           1x
Spurious Noise Filter Mode:   No Filter
Photon counted:               false
Data Averaging Filter Mode:   No Filter
KY328i:
Serial Number:                KY-3688
Wavelength (nm):              638.376
Grating Groove Density (l/mm):150.012
Grating Blaze:                500nm
Output Flipper Port:          Direct
Filter:                       1-Empty



376.44705,520
376.95944,466
377.47183,522
377.98422,531
378.49664,549
379.00903,575
379.52145,449
380.03384,577
380.54626,507
381.05869,514
381.57108,584
382.0835,484
382.59592,494
383.10834,547
383.62076,502
384.13321,516
384.64563,489
385.15805,526
385.6705,530
386.18292,467
386.69537,518
387.20779,500
387.72025,503
388.2327,495
388.74515,515
389.2576,597
389.77005,490
390.2825,617
390.79495,570
391.3074,497
391.81985,614
392.33234,537
392.84479,494
393.35724,553
393.86972,543
394.3822,539
394.89465,602
395.40714,522
395.91962,491
396.4321,585
396.94458,497
397.45706,488
397.96954,546
398.48203,560
398.99451,491
399.50699,559
400.0195,597
400.53198,543
401.04449,554
401.55698,578
402.06949,483
402.58197,535
403.09448,653
403.60699,513
404.11951,522
404.63202,572
405.14453,494
405.65704,519
406.16956,508
406.68207,544
407.19458,586
407.70709,536
408.21964,527
408.73215,488
409.24469,531
409.7572,547
410.26974,552
410.78226,577
411.2948,489
411.80734,595
412.31989,561
412.8324,547
413.34494,500
413.85748,575
414.37003,617
414.88257,467
415.39514,579
415.90768,527
416.42023,589
416.93277,524
417.44534,560
417.95789,560
418.47046,474
418.983,551
419.49557,525
420.00812,600
420.52069,502
421.03326,531
421.54581,527
422.05838,482
422.57095,589
423.08353,522
423.5961,532
424.10867,548
424.62125,549
425.13382,511
425.64639,537
426.159,583
426.67157,488
427.18414,479
427.69675,581
428.20932,523
428.72189,523
429.2345,523
429.74707,569
430.25967,484
430.77228,525
431.28485,444
431.79745,542
432.31006,496
432.82266,561
433.33524,377
433.84784,546
434.36044,589
434.87305,505
435.38565,514
435.89825,545
436.41089,534
436.92349,492
437.4361,550
437.9487,460
438.4613,565
438.97394,508
439.48654,502
439.99915,485
440.51178,604
441.02438,577
441.53702,556
442.04962,524
442.56226,538
443.07489,510
443.58749,521
444.10013,491
444.61276,544
445.1254,456
445.638,565
446.15063,508
446.66327,528
447.1759,521
447.68854,558
448.20117,506
448.71381,593
449.22644,463
449.73907,574
450.25171,497
450.76434,490
451.27701,533
451.78964,589
452.30228,521
452.81491,513
453.32758,557
453.84021,527
454.35284,548
454.86551,554
455.37814,540
455.89081,552
456.40344,514
456.91611,471
457.42874,554
457.94141,555
458.45404,518
458.96671,545
459.47937,519
459.992,587
460.50467,547
461.01733,471
461.53,523
462.04263,581
462.5553,544
463.06796,471
463.58063,603
464.09329,620
464.60596,695
465.11862,646
465.63129,595
466.14392,610
466.65659,559
467.16928,553
467.68195,639
468.19461,622
468.70728,622
469.21994,564
469.7326,600
470.24527,535
470.75793,620
471.2706,535
471.78329,574
472.29596,539
472.80862,556
473.32129,579
473.83398,523
474.34665,593
474.85931,581
475.37201,607
475.88467,521
476.39734,546
476.91003,639
477.4227,577
477.93539,561
478.44806,660
478.96075,569
479.47342,621
479.98608,583
480.49878,533
481.01144,565
481.52414,684
482.03683,665
482.5495,644
483.06219,693
483.57486,757
484.08755,746
484.60022,798
485.11292,671
485.62561,739
486.13828,810
486.65097,862
487.16364,740
487.67633,821
488.18903,866
488.70169,950
489.21439,914
489.72708,946
490.23978,888
490.75244,879
491.26514,947
491.77783,910
492.2905,944
492.80319,950
493.31589,1000
493.82858,957
494.34125,1008
494.85394,1024
495.36664,1014
495.87933,1042
496.392,1036
496.90469,1135
497.41739,1130
497.93008,1146
498.44275,1079
498.95544,1131
499.46814,1201
499.98083,1233
500.49353,1206
501.0062,1274
501.51889,1322
502.03159,1248
502.54428,1357
503.05695,1366
503.56964,1438
504.08234,1461
504.59503,1549
505.10773,1533
505.62039,1601
506.13309,1675
506.64578,1781
507.15848,1755
507.67114,1831
508.18384,2029
508.69653,2090
509.20923,2205
509.72189,2269
510.23459,2630
510.74728,2806
511.25998,3214
511.77264,4144
512.28534,5506
512.79803,8649
513.31073,19897
513.82343,73209
514.33606,293757
514.84875,945880
515.36145,2.30182e+06
515.87415,4.16369e+06
516.38684,5.5771e+06
516.89954,5.8268e+06
517.41217,4.85035e+06
517.92487,3.40928e+06
518.43756,2.30096e+06
518.95026,1.68443e+06
519.46295,1.36152e+06
519.97565,1.12749e+06
520.48828,896349
521.00098,656978
521.51367,443219
522.02637,280223
522.539,168976
523.0517,93877
523.56439,47808
524.07709,21406
524.58972,10076
525.10242,5759
525.61511,4246
526.12781,3686
526.64044,3159
527.15314,2939
527.66583,2710
528.17847,2450
528.69116,2403
529.20386,2243
529.71649,2124
530.22919,2124
530.74188,1980
531.25452,1902
531.76721,1845
532.27991,1779
532.79254,1743
533.30524,1624
533.81787,1621
534.33057,1501
534.8432,1551
535.3559,1477
535.86859,1445
536.38123,1406
536.89392,1424
537.40656,1402
537.91925,1296
538.43188,1365
538.94458,1333
539.45721,1310
539.96985,1226
540.48254,1162
540.99518,1142
541.50787,1120
542.02051,1092
542.5332,1039
543.04584,1000
543.55847,1071
544.07117,1001
544.5838,936
545.09644,927
545.60913,861
546.12177,840
546.6344,914
547.14703,841
547.65973,830
548.17236,869
548.685,830
549.19763,788
549.71033,734
550.22296,768
550.7356,743
551.24823,804
551.76086,819
552.2735,791
552.78613,780
553.29883,798
553.81146,714
554.3241,804
554.83673,771
555.34937,767
555.862,736
556.37463,671
556.88727,779
557.3999,744
557.91254,690
558.42517,767
558.93774,705
559.45038,675
559.96301,747
560.47565,735
560.98828,699
561.50092,725
562.01349,698
562.52612,663
563.03876,726
563.55139,694
564.06396,638
564.5766,715
565.08923,679
565.60181,658
566.11444,626
566.62708,687
567.13965,703
567.65228,743
568.16486,643
568.67749,669
569.19006,712
569.7027,711
570.21527,653
570.72791,676
571.24048,648
571.75311,728
572.26569,637
572.77826,713
573.29089,617
573.80347,694
574.31604,689
574.82867,668
575.34125,719
575.85382,634
576.36639,638
576.87903,630
577.3916,612
577.90417,653
578.41675,618
578.92932,632
579.44189,635
579.95447,655
580.46704,619
580.97961,619
581.49219,520
582.00476,628
582.51733,660
583.02991,588
583.54248,644
584.05499,657
584.56757,631
585.08014,621
585.59271,629
586.10522,573
586.6178,602
587.13037,589
587.64288,553
588.15546,668
588.66803,582
589.18054,615
589.69312,617
590.20563,654
590.7182,584
591.23071,572
591.74329,556
592.2558,652
592.76831,574
593.28088,589
593.7934,597
594.30591,586
594.81848,580
595.33099,634
595.84351,588
596.35602,635
596.86853,562
597.38104,612
597.89355,636
598.40613,626
598.91864,609
599.43109,632
599.9436,578
600.45612,566
600.96863,621
601.48114,606
601.99365,603
602.50616,496
603.01862,603
603.53113,568
604.04364,593
604.55615,548
605.0686,604
605.58112,556
606.09357,570
606.60608,542
607.11853,594
607.63104,531
608.14349,601
608.65601,618
609.16846,572
609.68091,594
610.19342,598
610.70587,634
611.21832,606
611.73077,645
612.24329,522
612.75574,566
613.26819,537
613.78064,611
614.29309,584
614.80554,611
615.31799,584
615.83044,581
616.3429,647
616.85529,618
617.36774,626
617.88019,605
618.39264,595
618.90503,617
619.41748,679
619.92993,539
620.44232,591
620.95477,657
621.46716,612
621.97961,588
622.492,610
623.00446,560
623.51685,549
624.02924,549
624.54169,495
625.05408,643
625.56647,573
626.07886,576
626.59125,570
627.1037,546
627.61609,675
628.12848,652
628.64087,589
629.1532,556
629.66559,615
630.17798,647
630.69037,625
631.20276,670
631.71509,551
632.22748,574
632.73987,572
633.2522,616
633.76459,550
634.27692,630
634.78931,562
635.30164,574
635.81403,555
636.32635,636
636.83868,676
637.35107,625
637.8634,631
638.37573,553
638.88806,597
639.40039,530
639.91272,618
640.42505,626
640.93738,616
641.44971,640
641.96204,571
642.47437,648
642.98669,621
643.49902,659
644.01129,587
644.52362,619
645.03589,572
645.54822,557
646.06055,549
646.57281,605
647.08508,583
647.59741,594
648.10968,598
648.62195,591
649.13428,633
649.64655,616
650.15881,595
650.67108,602
651.18335,553
651.69562,536
652.20789,579
652.72015,547
653.23242,611
653.74469,590
654.25696,580
654.76917,582
655.28143,578
655.7937,542
656.30591,573
656.81818,600
657.33038,583
657.84265,535
658.35486,517
658.86707,509
659.37933,604
659.89154,570
660.40375,540
660.91595,514
661.42816,513
661.94037,535
662.45258,576
662.96478,613
663.47699,592
663.9892,572
664.5014,586
665.01355,573
665.52576,541
666.03796,530
666.55011,524
667.06232,620
667.57446,538
668.08667,556
668.59882,556
669.11096,577
669.62311,499
670.13531,500
670.64746,513
671.15961,536
671.67175,534
672.1839,530
672.69604,546
673.20819,525
673.72034,494
674.23242,554
674.74457,487
675.25671,533
675.7688,523
676.28094,501
676.79303,483
677.30518,504
677.81726,454
678.32941,484
678.84149,544
679.35358,506
679.86566,453
680.37775,513
680.88983,523
681.40192,484
681.914,500
682.42609,512
682.93817,534
683.45026,517
683.96234,546
684.47437,558
684.98645,482
685.49847,491
686.01056,555
686.52258,539
687.03467,466
687.54669,523
688.05872,529
688.57074,473
689.08276,452
689.59479,478
690.10687,529
690.61884,422
691.13086,498
691.64288,470
692.15491,478
692.66693,519
693.17889,489
693.69092,427
694.20288,511
694.7149,415
695.22687,533
695.73889,501
696.25085,487
696.76282,455
697.27478,435
697.78674,476
698.29871,462
698.81067,501
699.32263,472
699.83459,469
700.34656,450
700.85852,498
701.37042,475
701.88239,463
702.39435,473
702.90625,532
703.41815,434
703.93011,454
704.44202,424
704.95392,434
705.46582,473
705.97778,410
706.48969,404
707.00153,465
707.51343,393
708.02533,480
708.53723,486
709.04913,405
709.56097,450
710.07288,519
710.58472,469
711.09662,415
711.60846,438
712.12036,431
712.6322,513
713.14404,511
713.65588,421
714.16772,452
714.67957,495
715.19141,427
715.70325,530
716.21509,423
716.72687,468
717.23871,459
717.75049,461
718.26233,441
718.77411,451
719.28595,470
719.79773,468
720.30951,453
720.82129,486
721.33313,448
721.84491,431
722.35663,486
722.86841,445
723.38019,444
723.89197,418
724.40375,413
724.91547,478
725.42725,479
725.93896,461
726.45074,462
726.96246,485
727.47418,421
727.9859,413
728.49762,446
729.00934,464
729.52106,457
730.03278,449
730.54449,418
731.05621,483
731.56787,370
732.07959,436
732.59131,341
733.10297,436
733.61462,424
734.12634,432
734.638,370
735.14966,438
735.66132,406
736.17297,446
736.68463,398
737.19629,433
737.70795,461
738.2196,390
738.7312,375
739.24286,421
739.75446,388
740.26611,446
740.77771,409
741.28931,377
741.8009,375
742.31256,374
742.82416,405
743.33575,401
743.84729,384
744.35889,392
744.87048,391
745.38208,456
745.89362,425
746.40521,386
746.91675,420
747.42828,436
747.93988,346
748.45142,389
748.96295,418
749.47449,428
749.98602,341
750.49756,414
751.00909,421
751.52057,417
752.0321,461
752.54364,441
753.05511,441
753.56659,394
754.07813,373
754.5896,438
755.10107,343
755.61255,425
756.12402,369
756.6355,464
757.14697,389
757.65845,418
758.16986,450
758.68134,360
759.19281,426
759.70422,470
760.21564,428
760.72711,439
761.23853,424
761.74994,406
762.26135,374
762.77277,466
763.28418,436
763.79559,396
764.30695,338
764.81836,447
765.32971,361
765.84113,375
766.35248,455
766.86389,371
767.37524,417
767.8866,400
768.39795,423
768.9093,424
769.42065,348
769.93195,384
770.4433,380
770.95465,412
771.46594,417
771.97729,414
772.48859,416
772.99988,351
773.51123,417
774.02252,365
774.53381,405
775.0451,366
775.55634,436
776.06763,367
776.57892,402
777.09015,422
777.60144,396
778.11267,326
778.62396,433
779.13519,427
779.64642,431
780.15765,425
780.66888,406
781.18011,390
781.69135,386
782.20251,461
782.71375,378
783.22491,406
783.73615,345
784.24731,424
784.75848,407
785.26971,417
785.78088,382
786.29205,385
786.80322,406
787.31433,367
787.8255,422
788.33667,386
788.84778,451
789.35895,400
789.87006,374
790.38116,355
790.89233,410
791.40344,390
791.91455,447
792.4256,352
792.93671,419
793.44781,348
793.95892,419
794.46997,415
794.98108,413
795.49213,464
796.00317,437
796.51422,364
797.02527,411
797.53632,331
798.04736,393
798.55841,391
799.06946,386
799.58044,429
800.09149,441
800.60248,437
801.11353,395
801.62451,410
802.1355,376
802.64648,423
803.15747,354
803.66846,360
804.17938,372
804.69037,367
805.20135,409
805.71228,354
806.22321,371
806.73419,358
807.24512,351
807.75604,442
808.26697,377
808.77789,444
809.28882,348
809.79968,414
810.31061,326
810.82147,441
811.3324,387
811.84326,341
812.35413,373
812.86499,367
813.37585,411
813.88672,398
814.39758,324
814.90845,424
815.41925,351
815.93011,368
816.44092,409
816.95178,409
817.46259,396
817.97339,376
818.48419,448
818.995,364
819.5058,383
820.01654,448
820.52734,438
821.03809,392
821.54889,383
822.05963,357
822.57037,400
823.08112,381
823.59186,419
824.1026,362
824.61334,346
825.12408,440
825.63477,371
826.14551,425
826.65619,413
827.16687,414
827.67761,346
828.18829,429
828.69897,396
829.20966,398
829.72028,377
830.23096,399
830.74164,379
831.25226,413
831.76288,401
832.27356,350
832.78418,413
833.2948,466
833.80542,350
834.31604,328
834.8266,362
835.33722,352
835.84778,385
836.3584,311
836.86896,390
837.37952,355
837.89008,353
838.40063,311
838.91119,379
839.42175,365
839.93231,377
840.44281,334
840.95337,385
841.46387,375
841.97437,334
842.48486,367
842.99536,418
843.50586,340
844.01636,357
844.52686,391
845.03729,402
845.54779,390
846.05823,383
846.56873,349
847.07916,302
847.5896,354
848.10004,423
848.61041,408
849.12085,427
849.63129,386
850.14166,398
850.6521,334
851.16248,356
851.67285,409
852.18323,417
852.6936,351
853.20398,438
853.71436,384
854.22467,346
854.73505,359
855.24536,381
855.75568,413
856.26605,379
856.77637,338
857.28668,325
857.79694,422
858.30725,344
858.81757,337
859.32782,414
859.83813,340
860.34839,335
860.85864,387
861.3689,310
861.87915,354
862.3894,390
862.8996,380
863.40985,351
863.92004,398
864.4303,366
864.94049,333
865.45068,367
865.96088,245
866.47107,330
866.98126,387
867.49139,337
868.00159,346
868.51172,378
869.02191,412
869.53204,329
870.04218,335
870.55231,355
871.06244,389
871.57257,356
872.08264,287
872.59277,332
873.10284,316
873.61292,377
874.12299,279
874.63306,330
875.14313,400
875.6532,339
876.16327,389
876.67328,285
877.18335,306
877.69336,337
878.20337,359
878.71338,354
879.22339,259
879.7334,358
880.24341,294
880.75336,290
881.26337,258
881.77332,307
882.28333,282
882.79327,275
883.30322,244
883.81317,302
884.32306,285
884.83301,277
885.3429,291
885.85284,304
886.36273,229
886.87262,239
887.38251,312
887.8924,299
888.40228,243
888.91217,273
889.422,297
889.93188,295
890.44171,281
890.95154,269
891.46136,308
891.97119,255
892.48102,215
892.99084,204
893.50061,321
894.01038,273
894.5202,282
895.02997,251
895.53973,247
896.0495,282
896.55927,296
897.06897,300
897.57874,220
898.08844,244
898.59821,211
899.10791,297
899.61761,222
900.12732,339
