Date and Time:                Tue Dec 14 22:13:46.811 2021
Software Version:             4.31.30023.0
Temperature (C):              -50
Model:                        DU420_BVF
Data Type:                    Counts (Bg Corrected)
Acquisition Mode:             Accumulate
Trigger Mode:                 Internal
Exposure Time (secs):         0.09999
Accumulate Cycle Time (secs): 0.09999
Frequency (Hz):               10.001
Number of Accumulations:      1000
Readout Mode:                 Full Vertical Binning
Horizontal binning:           1
Extended Dynamic Range:       off
Horizontally flipped:         false
Vertical Shift Speed (usecs): 8.25
Pixel Readout Time (usecs):   30.303
Serial Number:                CCD-22942
Pre-Amplifier Gain:           1x
Spurious Noise Filter Mode:   No Filter
Photon counted:               false
Data Averaging Filter Mode:   No Filter
KY328i:
Serial Number:                KY-3688
Wavelength (nm):              592.138
Grating Groove Density (l/mm):150.012
Grating Blaze:                500nm
Output Flipper Port:          Direct
Filter:                       1-Empty



330.00226,8010
330.51501,8033
331.02777,8142
331.54056,7881
332.05331,7964
332.56607,8128
333.07886,7836
333.59164,8192
334.1044,8151
334.61719,8259
335.12997,8110
335.64276,8187
336.15555,8109
336.66833,8145
337.18112,8150
337.69391,8203
338.20673,8129
338.71951,8432
339.2323,8461
339.74512,8331
340.25793,8296
340.77072,8424
341.28354,8183
341.79636,8139
342.30917,8221
342.82199,8330
343.33481,8183
343.84763,8505
344.36047,8337
344.87329,8491
345.38611,8163
345.89896,8366
346.41177,8488
346.92462,8207
347.43747,8278
347.95032,8184
348.46313,8279
348.97598,7889
349.48883,8124
350.00168,8333
350.51453,8295
351.0274,8036
351.54025,8020
352.0531,7963
352.56598,8248
353.07883,8258
353.59171,8100
354.10455,7987
354.61743,8151
355.13031,8178
355.64319,8260
356.15607,8285
356.66895,8207
357.18182,8224
357.6947,8269
358.20758,8005
358.72046,8304
359.23334,8136
359.74625,8192
360.25912,8364
360.77203,8456
361.28491,8470
361.79782,8618
362.31073,8642
362.82361,8775
363.33652,8974
363.84943,9209
364.36234,9516
364.87524,9397
365.38815,9635
365.90106,9251
366.41397,9287
366.92691,9576
367.43982,9817
367.95273,9783
368.46567,9880
368.97858,9873
369.49152,9824
370.00446,9876
370.51736,10069
371.0303,10128
371.54324,10160
372.05618,10264
372.56912,10303
373.08206,10367
373.595,10355
374.10794,10436
374.62088,10606
375.13382,10917
375.64676,10841
376.15973,10985
376.67267,11074
377.18561,11129
377.69858,10889
378.21152,11138
378.72449,11208
379.23743,11138
379.7504,11485
380.26337,11385
380.77634,11730
381.28931,11875
381.80225,11911
382.31522,12068
382.82819,12307
383.34116,12664
383.85416,12639
384.36713,12647
384.8801,12739
385.39307,12882
385.90604,12743
386.41904,12611
386.93201,12727
387.44501,12545
387.95798,12423
388.47098,12768
388.98395,12639
389.49695,12929
390.00995,12836
390.52292,12862
391.03592,13033
391.54892,12988
392.06192,12972
392.57492,13090
393.08792,13102
393.60092,12948
394.11392,13036
394.62692,12947
395.13992,12910
395.65292,12768
396.16592,12800
396.67892,12922
397.19196,12773
397.70496,12888
398.21796,12624
398.73099,12824
399.24399,12799
399.75702,12821
400.27002,12993
400.78305,12790
401.29608,12716
401.80908,12996
402.32211,13138
402.83514,13079
403.34818,13259
403.86118,13457
404.37421,13184
404.88724,13466
405.40027,13421
405.9133,13584
406.42633,14072
406.93936,13648
407.45239,13992
407.96542,14124
408.47845,14242
408.99152,14325
409.50455,14273
410.01758,14336
410.53061,14621
411.04367,14635
411.5567,14673
412.06973,14847
412.58279,14634
413.09583,14787
413.60889,14948
414.12192,14769
414.63498,14923
415.14801,14821
415.66107,14990
416.17413,15038
416.68716,15301
417.20023,15027
417.71329,15156
418.22632,14827
418.73938,15010
419.25244,15155
419.7655,14865
420.27856,14854
420.7916,14703
421.30466,14798
421.81772,14789
422.33078,15071
422.84384,14819
423.3569,14890
423.86996,14783
424.38303,14558
424.89612,14869
425.40918,14813
425.92224,14259
426.4353,14335
426.94836,14319
427.46143,14363
427.97452,14370
428.48758,14440
429.00064,14319
429.5137,14372
430.02679,14464
430.53986,14215
431.05292,14192
431.56601,14108
432.07907,14395
432.59216,14347
433.10522,14380
433.61832,14485
434.13138,14169
434.64447,14416
435.15753,14411
435.67062,14392
436.18369,14323
436.69678,14814
437.20984,14572
437.72293,14731
438.23602,14613
438.74908,14717
439.26218,14506
439.77527,14572
440.28833,14614
440.80142,14674
441.31451,14844
441.82758,14699
442.34067,14681
442.85376,14781
443.36685,14615
443.87991,14724
444.39301,14664
444.9061,14822
445.41919,14616
445.93228,14843
446.44534,14681
446.95844,14610
447.47153,14662
447.98462,14747
448.49771,14897
449.0108,15064
449.5239,15011
450.03699,15189
450.55008,15320
451.06314,15408
451.57623,15167
452.08932,15184
452.60242,15282
453.11551,15062
453.6286,14922
454.14169,15010
454.65479,14748
455.16788,14823
455.68097,14828
456.19406,14987
456.70715,14565
457.22025,14384
457.73334,14494
458.24643,14232
458.75952,14556
459.27261,14707
459.78571,14672
460.2988,14522
460.81189,14386
461.32498,14480
461.83807,14471
462.35117,14504
462.86426,14550
463.37735,14477
463.89044,14337
464.40353,14545
464.91663,14145
465.42972,14423
465.94281,14473
466.4559,14457
466.96899,14522
467.48209,14661
467.99518,14481
468.50827,14619
469.02136,14412
469.53445,14591
470.04755,14624
470.56064,14584
471.07373,14561
471.58682,14652
472.09991,14530
472.61301,14757
473.1261,14507
473.63919,14405
474.15228,14443
474.66537,14513
475.17847,14844
475.69156,14431
476.20465,14649
476.71774,14690
477.23083,14626
477.74393,14936
478.25699,14731
478.77008,14881
479.28317,14699
479.79626,14853
480.30936,14717
480.82245,14705
481.33554,14874
481.8486,14921
482.36169,14957
482.87479,15193
483.38788,15041
483.90097,15350
484.41403,14816
484.92712,15093
485.44022,15136
485.95328,15298
486.46637,14995
486.97946,14751
487.49255,14864
488.00562,14685
488.51871,14938
489.03177,14995
489.54486,14886
490.05795,15064
490.57101,15024
491.08411,14801
491.59717,14998
492.11026,14957
492.62332,15053
493.13641,14927
493.64948,15060
494.16257,14925
494.67563,14870
495.18872,15074
495.70178,15239
496.21484,14840
496.72794,15076
497.241,14867
497.75406,15017
498.26715,15056
498.78021,15289
499.29327,15164
499.80634,15170
500.31943,15110
500.83249,15333
501.34555,15083
501.85861,15028
502.37167,15345
502.88474,15529
503.3978,15351
503.91086,15509
504.42392,15309
504.93698,15358
505.45004,15604
505.9631,15469
506.47617,15759
506.98923,15723
507.50229,15543
508.01532,15613
508.52838,15456
509.04144,15400
509.5545,15738
510.06754,15700
510.5806,15673
511.09366,15644
511.60669,15475
512.11975,15499
512.63281,15629
513.14581,15487
513.65887,15788
514.17194,15828
514.685,15743
515.198,15831
515.71106,15947
516.22412,16251
516.73712,15942
517.25018,16121
517.76324,16034
518.27625,16294
518.78931,16240
519.30231,16139
519.81537,16218
520.32837,16091
520.84143,16236
521.35443,16059
521.86749,16260
522.38049,16461
522.89355,16588
523.40656,16381
523.91962,16465
524.43262,16642
524.94562,16606
525.45868,16707
525.97168,16650
526.48468,16684
526.99768,16721
527.51074,16617
528.02374,16945
528.53674,17003
529.04974,17081
529.56281,16880
530.07581,16993
530.58881,17018
531.10181,17210
531.61481,17298
532.12781,17289
532.64081,17468
533.15381,17398
533.66681,17649
534.17981,17735
534.69281,17626
535.20581,17781
535.71881,17849
536.23181,17843
536.74481,18169
537.25781,17999
537.77075,18429
538.28375,18622
538.79675,18812
539.30975,18908
539.82269,19258
540.33569,19323
540.84869,19140
541.36163,19631
541.87463,19695
542.38763,19915
542.90057,20379
543.41357,20453
543.92651,20438
544.43951,20792
544.95245,20906
545.46545,21331
545.97839,21593
546.49139,21710
547.00433,22541
547.51727,22780
548.03027,22905
548.54321,23477
549.05615,23897
549.56909,24396
550.08209,24870
550.59503,25483
551.10797,26050
551.62091,26810
552.13385,27665
552.64679,28345
553.15973,29170
553.67267,30596
554.18561,32333
554.69855,33898
555.21149,36437
555.72443,39387
556.23737,44046
556.75031,50614
557.26324,60234
557.77618,77507
558.28906,107248
558.802,161098
559.31494,251361
559.82782,384776
560.34076,559503
560.8537,753435
561.36658,962546
561.87952,1.17607e+06
562.3924,1.40054e+06
562.90533,1.62897e+06
563.41821,1.8581e+06
563.93115,2.08772e+06
564.44403,2.31435e+06
564.95691,2.54204e+06
565.46985,2.76285e+06
565.98273,2.98361e+06
566.49561,3.20348e+06
567.00848,3.42058e+06
567.52142,3.6339e+06
568.0343,3.84307e+06
568.54718,4.05192e+06
569.06006,4.25957e+06
569.57294,4.46061e+06
570.08582,4.66401e+06
570.59869,4.86115e+06
571.11157,5.05808e+06
571.62445,5.25811e+06
572.13733,5.45122e+06
572.65021,5.64684e+06
573.16302,5.8348e+06
573.6759,6.02315e+06
574.18878,6.20632e+06
574.70166,6.39203e+06
575.21448,6.58293e+06
575.72736,6.76298e+06
576.24023,6.94062e+06
576.75305,7.11401e+06
577.26593,7.29115e+06
577.77875,7.45871e+06
578.29163,7.62858e+06
578.80444,7.79974e+06
579.31732,7.9613e+06
579.83014,8.12509e+06
580.34296,8.28397e+06
580.85583,8.4395e+06
581.36865,8.59262e+06
581.88147,8.74154e+06
582.39429,8.88943e+06
582.9071,9.03493e+06
583.41992,9.17263e+06
583.93274,9.31277e+06
584.44562,9.44765e+06
584.95837,9.58061e+06
585.47119,9.71215e+06
585.98401,9.83955e+06
586.49683,9.95369e+06
587.00964,1.00713e+07
587.52246,1.01861e+07
588.03528,1.02871e+07
588.54803,1.03634e+07
589.06085,1.04152e+07
589.57367,1.04204e+07
590.08643,1.03846e+07
590.59924,1.03115e+07
591.112,1.02083e+07
591.62482,1.00698e+07
592.13757,9.90395e+06
592.65039,9.71478e+06
593.16315,9.50584e+06
593.6759,9.29735e+06
594.18866,9.08567e+06
594.70148,8.86872e+06
595.21423,8.64875e+06
595.72699,8.42387e+06
596.23975,8.2171e+06
596.7525,7.99587e+06
597.26526,7.7884e+06
597.77802,7.56632e+06
598.29077,7.35629e+06
598.80353,7.14516e+06
599.31628,6.94121e+06
599.82904,6.73918e+06
600.34174,6.53973e+06
600.85449,6.33513e+06
601.36725,6.14161e+06
601.87994,5.9438e+06
602.3927,5.74979e+06
602.90546,5.55964e+06
603.41815,5.37586e+06
603.93091,5.19029e+06
604.4436,5.00355e+06
604.9563,4.82281e+06
605.46906,4.64221e+06
605.98175,4.463e+06
606.49445,4.28577e+06
607.00714,4.11111e+06
607.51984,3.94022e+06
608.03259,3.77146e+06
608.54529,3.60032e+06
609.05798,3.43571e+06
609.57068,3.27473e+06
610.08337,3.12011e+06
610.59601,2.95446e+06
611.1087,2.79905e+06
611.6214,2.64355e+06
612.13409,2.48922e+06
612.64673,2.33704e+06
613.15942,2.18832e+06
613.67212,2.04266e+06
614.18475,1.89623e+06
614.69745,1.75624e+06
615.21008,1.61522e+06
615.72272,1.47944e+06
616.23541,1.34339e+06
616.74805,1.21167e+06
617.26068,1.08518e+06
617.77338,962432
618.28601,840594
618.79865,729886
619.31128,625011
619.82391,530874
620.33655,447655
620.84918,372551
621.36182,311862
621.87439,263156
622.38702,224353
622.89966,195514
623.41229,174043
623.92487,157592
624.4375,146236
624.95007,137851
625.46271,131942
625.97528,127073
626.48785,123668
627.00049,120750
627.51306,118676
628.02563,115896
628.53821,114181
629.05078,112525
629.56335,110891
630.07593,109215
630.5885,107982
631.10107,105952
631.61365,104854
632.12622,103766
632.63879,102317
633.15131,101158
633.66388,100015
634.17639,98447
634.68896,96864
635.20148,96019
635.71405,95326
636.22656,93585
636.73907,93222
637.25165,91985
637.76416,91103
638.27667,89941
638.78918,89365
639.3017,89096
639.81421,88529
640.32672,87772
640.83923,87434
641.35168,86301
641.8642,84960
642.37671,84394
642.88922,83996
643.40167,82611
643.91418,82020
644.42664,81120
644.93909,80760
645.4516,79730
645.96405,79350
646.4765,78860
646.98895,78033
647.50146,77665
648.01392,77044
648.52637,76134
649.03882,75229
649.55121,74889
650.06366,74248
650.57611,73854
651.08856,73241
651.60095,72487
652.1134,71982
652.62579,71177
653.13824,71111
653.65063,70457
654.16309,70035
654.67548,69118
655.18787,68125
655.70026,67411
656.21265,66871
656.72504,65783
657.23743,65656
657.74982,64917
658.26221,64160
658.7746,63636
659.28699,62908
659.79932,62185
660.31171,61793
660.82404,61565
661.33643,60909
661.84875,59907
662.36115,59579
662.87347,58854
663.3858,58546
663.89813,58037
664.41046,57430
664.92285,56844
665.43518,56453
665.94745,55822
666.45978,55063
666.97211,54434
667.48444,54390
667.9967,53719
668.50903,53045
669.02136,52769
669.53363,51872
670.0459,51654
670.55823,51158
671.0705,50609
671.58276,49927
672.09503,49875
672.6073,49006
673.11957,48548
673.63184,48563
674.1441,47969
674.65637,47113
675.16864,47009
675.68085,46407
676.19312,45846
676.70538,45498
677.21759,45031
677.7298,44863
678.24207,44399
678.75427,43815
679.26648,43478
679.77869,43041
680.29089,42558
680.8031,42466
681.31531,41739
681.82751,41449
682.33972,41269
682.85193,40945
683.36407,40455
683.87628,39854
684.38843,39809
684.90063,39462
685.41278,39005
685.92493,38832
686.43713,38293
686.94928,38395
687.46143,37651
687.97357,37482
688.48572,36978
688.99786,36849
689.51001,36570
690.02209,35978
690.53424,36104
691.04639,35690
691.55847,35198
692.07062,34952
692.5827,34875
693.09479,34540
693.60687,34014
694.11902,33910
694.6311,33312
695.14319,33222
695.65527,32757
696.1673,32317
696.67938,32279
697.19147,31856
697.70355,31521
698.21558,31589
698.72766,31062
699.23969,30674
699.75171,30787
700.26379,30211
700.77582,30400
701.28784,29929
701.79987,29674
702.31189,29369
702.82391,29140
703.33594,28985
703.8479,29054
704.35992,28655
704.87195,28435
705.38391,28370
705.89594,27963
706.4079,27690
706.91986,27994
707.43182,27395
707.94385,27706
708.45581,27407
708.96777,26957
709.47974,26923
709.99164,26975
710.5036,26875
711.01556,26656
711.52747,26351
712.03943,26248
712.55133,26279
713.06329,26403
713.5752,25751
714.0871,25797
714.599,26034
715.1109,25589
715.6228,25617
716.1347,25552
716.64661,25117
717.15851,25357
717.67035,25386
718.18225,25044
718.69409,25127
719.20599,25086
719.71783,24940
720.22968,24945
720.74152,24566
721.25336,24596
721.7652,24512
722.27704,24376
722.78888,24303
723.30072,24267
723.8125,24284
724.32434,24246
724.83618,24232
725.34796,24150
725.85974,24181
726.37158,23845
726.88336,24007
727.39514,24000
727.90692,23513
728.4187,23741
728.93042,23534
729.4422,23606
729.95398,23527
730.4657,23638
730.97748,23801
731.4892,23334
732.00098,23478
732.5127,23545
733.02441,23490
733.53613,23399
734.04785,23377
734.55957,23059
735.07129,23105
735.58301,23128
736.09467,22970
736.60638,23148
737.11804,23263
737.62976,23045
738.14142,23131
738.65308,22973
739.16473,22933
739.67639,23051
740.18805,23176
740.69971,22842
741.21136,22976
741.72302,22977
742.23462,22965
742.74628,23029
743.25787,22793
743.76947,23051
744.28113,22845
744.79272,22845
745.30432,22723
745.81592,22874
746.32751,23019
746.83905,22859
747.35065,23077
747.86224,22985
748.37378,22950
748.88538,22979
749.39691,23040
749.90845,22826
750.42004,22774
750.93158,22941
751.44312,22957
751.95459,23028
752.46613,22775
752.97766,23009
753.4892,22815
754.00067,23195
754.51221,23041
755.02368,22782
755.53516,22775
756.04663,22935
756.55811,23020
757.06958,23002
757.58105,23059
758.09253,23052
758.604,22695
759.11542,23006
759.62689,23066
760.13831,23001
760.64978,23134
761.16119,23292
761.67261,23191
762.18402,23202
762.69543,23305
763.20685,23116
763.71826,23181
764.22961,23284
764.74103,23456
765.25238,23292
765.76379,23262
766.27515,23123
766.7865,23472
767.29785,23608
767.8092,23547
768.32056,23691
768.83191,23661
769.34326,23620
769.85455,23650
770.36591,23838
770.8772,23617
771.38849,23786
771.89984,24037
772.41113,24241
772.92242,24138
773.43372,24198
773.94495,24089
774.45624,24081
774.96753,24285
775.47876,24325
775.99005,24328
776.50128,24353
777.01251,24227
777.52374,24596
778.03503,24940
778.5462,24545
779.05743,24901
779.56866,24879
780.0799,24899
780.59106,24907
781.10229,25049
781.61346,24962
782.12463,24983
782.6358,24937
783.14697,25221
783.65814,25339
784.16931,25448
784.68048,25355
785.19165,25388
785.70276,25892
786.21387,25858
786.72504,25691
787.23615,25763
787.74725,26002
788.25836,26111
788.76947,25989
789.28058,26223
789.79169,26531
790.30273,26124
790.81384,26623
791.32489,26503
791.83594,26510
792.34705,26572
792.85809,26506
793.36914,26670
793.88019,26768
794.39117,26779
794.90222,26903
795.41327,27170
795.92426,27371
796.43524,27898
796.94629,27723
797.45728,27670
797.96826,27916
798.47925,28173
798.99023,28186
799.50116,28049
800.01215,28323
800.52307,28831
801.03406,28752
801.54498,28770
802.05591,29038
802.56683,29252
803.07776,28877
803.58868,29310
804.09961,29262
804.61053,29509
805.1214,29642
805.63232,29840
806.14319,29990
806.65405,29858
807.16492,30324
807.67578,30394
808.18665,30830
808.69751,31317
809.20837,31292
809.71918,31162
810.23004,31810
810.74084,32182
811.25165,32816
811.76245,33074
812.27325,33764
812.78406,34136
813.29486,34664
813.80566,35356
814.31641,36015
814.82721,36504
815.33795,37147
815.84869,37639
816.35944,38521
816.87018,38852
817.38092,39753
817.89166,40343
818.4024,40792
818.91309,41600
819.42383,42227
819.93451,42767
820.44519,43216
820.95593,44070
821.46661,44544
821.97723,45121
822.48792,45576
822.9986,45783
823.50922,46395
824.0199,46756
824.53052,46999
825.04114,47698
825.55176,48312
826.06238,48789
826.573,49005
827.08362,49404
827.59424,49848
828.1048,50058
828.61542,50623
829.12598,51097
829.63654,51659
830.14709,51813
830.65765,52486
831.16821,53260
831.67877,54303
832.18927,55441
832.69983,56284
833.21033,57318
833.72083,58541
834.23132,60195
834.74182,63068
835.25232,66730
835.76282,72060
836.27332,79142
836.78375,87773
837.29425,98279
837.80469,109092
838.31512,119177
838.82556,126532
839.336,130997
839.84644,135078
840.35687,138291
840.86725,139827
841.37769,141505
841.88806,142243
842.39844,142372
842.90887,141987
843.41925,141803
843.92957,141666
844.43994,140985
844.95032,140152
845.46063,140018
845.97101,139093
846.48132,139088
846.99164,138606
847.50195,138429
848.01227,138390
848.52258,138485
849.03284,139075
849.54315,139864
850.05341,141590
850.56372,142453
851.07397,144999
851.58423,147889
852.09448,150949
852.60474,155019
853.11493,160129
853.62518,166492
854.13538,176046
